#== Filter Data - Lambda 9 Spectrophotometer ==
#  Kitt Peak National Observatory - NOAO
#------------------------------------------------
#Filter: 1NM/120NMPERMIN/0.5S  300TO1200NM
#Date: 04/08/03   Time: 15:49:41  Operator: HS
#cwl=  5399.58A  fwhm= 936.37A  Tmax= 86.48% at  5210.00A
#Tcutoff=  2.00 %  Slitsize = 10 A
#fwhm spans 4931.39A to 5867.77A
#90%  spans 5037.46A to 5501.32A
#bw90 is  0.495; Tmin90/Tmax is  0.900
#No data smoothing
#
#Npts=  901     Disp= 10.00A/Interval
#*****
  3000.00    -0.005
  3010.00    -0.005
  3020.00    -0.005
  3030.00    -0.005
  3040.00    -0.005
  3050.00    -0.005
  3060.00    -0.005
  3070.00    -0.005
  3080.00    -0.005
  3090.00    -0.005
  3100.00    -0.005
  3110.00    -0.005
  3120.00    -0.005
  3130.00    -0.005
  3140.00    -0.005
  3150.00    -0.005
  3160.00    -0.005
  3170.00    -0.005
  3180.00    -0.020
  3190.00    -0.035
  3200.00     0.000
  3210.00     0.000
  3220.00     0.000
  3230.00    -0.005
  3240.00    -0.010
  3250.00    -0.010
  3260.00    -0.005
  3270.00    -0.005
  3280.00    -0.010
  3290.00    -0.005
  3300.00    -0.005
  3310.00    -0.005
  3320.00    -0.010
  3330.00    -0.005
  3340.00    -0.005
  3350.00     0.000
  3360.00    -0.005
  3370.00    -0.005
  3380.00    -0.005
  3390.00    -0.005
  3400.00    -0.005
  3410.00     0.000
  3420.00    -0.005
  3430.00    -0.005
  3440.00    -0.005
  3450.00    -0.005
  3460.00    -0.005
  3470.00    -0.005
  3480.00    -0.005
  3490.00    -0.005
  3500.00    -0.005
  3510.00    -0.005
  3520.00    -0.005
  3530.00    -0.005
  3540.00    -0.005
  3550.00    -0.005
  3560.00    -0.005
  3570.00    -0.005
  3580.00     0.000
  3590.00     0.000
  3600.00    -0.005
  3610.00     0.000
  3620.00     0.000
  3630.00    -0.005
  3640.00    -0.005
  3650.00     0.000
  3660.00    -0.005
  3670.00    -0.005
  3680.00     0.000
  3690.00     0.000
  3700.00    -0.005
  3710.00    -0.005
  3720.00     0.000
  3730.00     0.000
  3740.00    -0.005
  3750.00     0.000
  3760.00    -0.005
  3770.00    -0.005
  3780.00    -0.010
  3790.00    -0.005
  3800.00    -0.005
  3810.00    -0.005
  3820.00    -0.005
  3830.00     0.000
  3840.00     0.000
  3850.00    -0.005
  3860.00    -0.005
  3870.00    -0.005
  3880.00     0.000
  3890.00    -0.005
  3900.00    -0.005
  3910.00    -0.005
  3920.00    -0.005
  3930.00    -0.005
  3940.00    -0.005
  3950.00     0.000
  3960.00    -0.005
  3970.00     0.000
  3980.00     0.000
  3990.00     0.000
  4000.00    -0.005
  4010.00    -0.005
  4020.00    -0.005
  4030.00     0.000
  4040.00    -0.005
  4050.00    -0.005
  4060.00    -0.005
  4070.00     0.000
  4080.00    -0.005
  4090.00     0.000
  4100.00    -0.005
  4110.00    -0.005
  4120.00    -0.005
  4130.00     0.000
  4140.00    -0.005
  4150.00    -0.005
  4160.00    -0.005
  4170.00    -0.005
  4180.00    -0.005
  4190.00    -0.005
  4200.00    -0.005
  4210.00    -0.005
  4220.00     0.000
  4230.00    -0.005
  4240.00     0.000
  4250.00    -0.005
  4260.00    -0.005
  4270.00    -0.005
  4280.00    -0.005
  4290.00     0.000
  4300.00    -0.005
  4310.00    -0.005
  4320.00    -0.005
  4330.00     0.000
  4340.00     0.000
  4350.00     0.000
  4360.00    -0.005
  4370.00    -0.005
  4380.00     0.000
  4390.00    -0.005
  4400.00    -0.005
  4410.00    -0.005
  4420.00    -0.005
  4430.00     0.000
  4440.00    -0.005
  4450.00     0.000
  4460.00    -0.005
  4470.00     0.000
  4480.00     0.000
  4490.00    -0.005
  4500.00    -0.005
  4510.00    -0.005
  4520.00    -0.005
  4530.00     0.000
  4540.00    -0.005
  4550.00    -0.005
  4560.00    -0.005
  4570.00    -0.005
  4580.00     0.000
  4590.00     0.000
  4600.00     0.000
  4610.00     0.000
  4620.00     0.000
  4630.00     0.000
  4640.00     0.000
  4650.00     0.000
  4660.00     0.000
  4670.00     0.005
  4680.00     0.005
  4690.00     0.010
  4700.00     0.015
  4710.00     0.025
  4720.00     0.040
  4730.00     0.055
  4740.00     0.095
  4750.00     0.140
  4760.00     0.220
  4770.00     0.340
  4780.00     0.520
  4790.00     0.795
  4800.00     1.200
  4810.00     1.800
  4820.00     2.675
  4830.00     3.895
  4840.00     5.550
  4850.00     7.730
  4860.00    10.495
  4870.00    13.885
  4880.00    17.845
  4890.00    22.275
  4900.00    27.105
  4910.00    32.220
  4920.00    37.400
  4930.00    42.550
  4940.00    47.525
  4950.00    52.140
  4960.00    56.485
  4970.00    60.495
  4980.00    64.145
  4990.00    67.265
  5000.00    70.075
  5010.00    72.610
  5020.00    74.770
  5030.00    76.605
  5040.00    78.255
  5050.00    79.610
  5060.00    80.835
  5070.00    81.805
  5080.00    82.715
  5090.00    83.425
  5100.00    84.040
  5110.00    84.560
  5120.00    84.965
  5130.00    85.310
  5140.00    85.535
  5150.00    85.715
  5160.00    85.975
  5170.00    86.135
  5180.00    86.275
  5190.00    86.410
  5200.00    86.415
  5210.00    86.485
  5220.00    86.390
  5230.00    86.405
  5240.00    86.395
  5250.00    86.165
  5260.00    86.115
  5270.00    85.975
  5280.00    85.780
  5290.00    85.620
  5300.00    85.505
  5310.00    85.335
  5320.00    85.150
  5330.00    84.955
  5340.00    84.730
  5350.00    84.410
  5360.00    84.150
  5370.00    83.825
  5380.00    83.470
  5390.00    83.080
  5400.00    82.720
  5410.00    82.290
  5420.00    81.875
  5430.00    81.525
  5440.00    81.025
  5450.00    80.600
  5460.00    79.990
  5470.00    79.535
  5480.00    79.050
  5490.00    78.520
  5500.00    77.910
  5510.00    77.355
  5520.00    76.715
  5530.00    75.990
  5540.00    75.350
  5550.00    74.640
  5560.00    73.920
  5570.00    73.205
  5580.00    72.445
  5590.00    71.670
  5600.00    70.935
  5610.00    70.060
  5620.00    69.175
  5630.00    68.380
  5640.00    67.410
  5650.00    66.560
  5660.00    65.600
  5670.00    64.695
  5680.00    63.700
  5690.00    62.675
  5700.00    61.725
  5710.00    60.710
  5720.00    59.720
  5730.00    58.635
  5740.00    57.580
  5750.00    56.530
  5760.00    55.415
  5770.00    54.300
  5780.00    53.225
  5790.00    52.030
  5800.00    50.940
  5810.00    49.850
  5820.00    48.675
  5830.00    47.530
  5840.00    46.415
  5850.00    45.255
  5860.00    44.120
  5870.00    42.990
  5880.00    41.775
  5890.00    40.615
  5900.00    39.495
  5910.00    38.270
  5920.00    37.195
  5930.00    36.035
  5940.00    34.890
  5950.00    33.780
  5960.00    32.715
  5970.00    31.595
  5980.00    30.505
  5990.00    29.420
  6000.00    28.355
  6010.00    27.300
  6020.00    26.320
  6030.00    25.295
  6040.00    24.295
  6050.00    23.335
  6060.00    22.360
  6070.00    21.430
  6080.00    20.515
  6090.00    19.655
  6100.00    18.770
  6110.00    17.925
  6120.00    17.090
  6130.00    16.285
  6140.00    15.490
  6150.00    14.735
  6160.00    13.995
  6170.00    13.300
  6180.00    12.605
  6190.00    11.960
  6200.00    11.320
  6210.00    10.700
  6220.00    10.110
  6230.00     9.545
  6240.00     9.000
  6250.00     8.475
  6260.00     7.970
  6270.00     7.485
  6280.00     7.025
  6290.00     6.595
  6300.00     6.185
  6310.00     5.790
  6320.00     5.415
  6330.00     5.045
  6340.00     4.705
  6350.00     4.395
  6360.00     4.105
  6370.00     3.810
  6380.00     3.540
  6390.00     3.280
  6400.00     3.045
  6410.00     2.820
  6420.00     2.595
  6430.00     2.410
  6440.00     2.215
  6450.00     2.050
  6460.00     1.885
  6470.00     1.735
  6480.00     1.590
  6490.00     1.465
  6500.00     1.340
  6510.00     1.230
  6520.00     1.120
  6530.00     1.025
  6540.00     0.940
  6550.00     0.850
  6560.00     0.775
  6570.00     0.705
  6580.00     0.640
  6590.00     0.585
  6600.00     0.525
  6610.00     0.475
  6620.00     0.430
  6630.00     0.385
  6640.00     0.350
  6650.00     0.315
  6660.00     0.280
  6670.00     0.255
  6680.00     0.230
  6690.00     0.205
  6700.00     0.185
  6710.00     0.160
  6720.00     0.145
  6730.00     0.135
  6740.00     0.115
  6750.00     0.105
  6760.00     0.090
  6770.00     0.080
  6780.00     0.070
  6790.00     0.060
  6800.00     0.055
  6810.00     0.050
  6820.00     0.045
  6830.00     0.040
  6840.00     0.035
  6850.00     0.030
  6860.00     0.025
  6870.00     0.020
  6880.00     0.020
  6890.00     0.005
  6900.00    -0.050
  6910.00     0.010
  6920.00     0.010
  6930.00     0.005
  6940.00     0.005
  6950.00     0.005
  6960.00     0.005
  6970.00     0.005
  6980.00     0.000
  6990.00     0.000
  7000.00     0.000
  7010.00     0.000
  7020.00     0.000
  7030.00     0.000
  7040.00     0.000
  7050.00     0.000
  7060.00     0.000
  7070.00    -0.005
  7080.00     0.000
  7090.00    -0.005
  7100.00    -0.005
  7110.00    -0.005
  7120.00    -0.005
  7130.00    -0.005
  7140.00    -0.005
  7150.00    -0.005
  7160.00    -0.005
  7170.00    -0.005
  7180.00    -0.005
  7190.00    -0.005
  7200.00    -0.005
  7210.00    -0.005
  7220.00    -0.005
  7230.00    -0.005
  7240.00    -0.005
  7250.00    -0.005
  7260.00    -0.005
  7270.00    -0.005
  7280.00    -0.005
  7290.00    -0.005
  7300.00    -0.005
  7310.00    -0.005
  7320.00    -0.005
  7330.00    -0.005
  7340.00    -0.005
  7350.00    -0.005
  7360.00    -0.005
  7370.00    -0.005
  7380.00    -0.005
  7390.00    -0.005
  7400.00    -0.005
  7410.00    -0.005
  7420.00    -0.005
  7430.00    -0.005
  7440.00    -0.005
  7450.00    -0.005
  7460.00    -0.005
  7470.00    -0.005
  7480.00    -0.005
  7490.00    -0.005
  7500.00    -0.005
  7510.00    -0.005
  7520.00    -0.005
  7530.00    -0.005
  7540.00    -0.005
  7550.00    -0.005
  7560.00    -0.005
  7570.00    -0.005
  7580.00    -0.005
  7590.00    -0.005
  7600.00    -0.005
  7610.00    -0.005
  7620.00    -0.005
  7630.00    -0.005
  7640.00    -0.005
  7650.00     0.000
  7660.00    -0.005
  7670.00     0.000
  7680.00    -0.005
  7690.00    -0.005
  7700.00    -0.005
  7710.00    -0.005
  7720.00    -0.005
  7730.00    -0.005
  7740.00    -0.005
  7750.00    -0.005
  7760.00    -0.005
  7770.00    -0.005
  7780.00    -0.005
  7790.00    -0.005
  7800.00    -0.005
  7810.00     0.000
  7820.00    -0.005
  7830.00    -0.005
  7840.00     0.000
  7850.00    -0.005
  7860.00     0.000
  7870.00    -0.005
  7880.00    -0.005
  7890.00    -0.005
  7900.00    -0.005
  7910.00    -0.005
  7920.00    -0.005
  7930.00    -0.005
  7940.00    -0.005
  7950.00    -0.005
  7960.00     0.000
  7970.00     0.000
  7980.00    -0.005
  7990.00    -0.005
  8000.00    -0.005
  8010.00     0.000
  8020.00    -0.005
  8030.00     0.000
  8040.00    -0.005
  8050.00    -0.005
  8060.00    -0.005
  8070.00     0.000
  8080.00     0.000
  8090.00    -0.005
  8100.00    -0.025
  8110.00    -0.005
  8120.00     0.000
  8130.00     0.000
  8140.00     0.000
  8150.00     0.000
  8160.00    -0.005
  8170.00    -0.005
  8180.00    -0.005
  8190.00    -0.005
  8200.00    -0.005
  8210.00     0.000
  8220.00     0.000
  8230.00     0.000
  8240.00    -0.005
  8250.00    -0.005
  8260.00    -0.005
  8270.00    -0.005
  8280.00     0.000
  8290.00     0.000
  8300.00     0.000
  8310.00     0.000
  8320.00    -0.005
  8330.00     0.000
  8340.00    -0.005
  8350.00     0.000
  8360.00     0.000
  8370.00     0.000
  8380.00     0.000
  8390.00     0.000
  8400.00     0.000
  8410.00     0.000
  8420.00     0.000
  8430.00     0.000
  8440.00     0.000
  8450.00    -0.005
  8460.00    -0.005
  8470.00    -0.005
  8480.00     0.000
  8490.00     0.000
  8500.00     0.005
  8510.00     0.005
  8520.00     0.000
  8530.00     0.000
  8540.00    -0.005
  8550.00    -0.005
  8560.00     0.000
  8570.00     0.005
  8580.00     0.005
  8590.00     0.000
  8600.00    -0.010
  8610.00     0.050
  8620.00    -0.005
  8630.00     0.005
  8640.00     0.010
  8650.00     0.020
  8660.00     0.000
  8670.00    -0.020
  8680.00    -0.015
  8690.00    -0.005
  8700.00    -0.030
  8710.00     0.065
  8720.00     0.005
  8730.00     0.055
  8740.00     0.015
  8750.00     0.010
  8760.00     0.000
  8770.00     0.070
  8780.00    -0.020
  8790.00     0.030
  8800.00     0.070
  8810.00    -0.010
  8820.00    -0.020
  8830.00     0.025
  8840.00     0.035
  8850.00     0.010
  8860.00     0.020
  8870.00     0.025
  8880.00     0.065
  8890.00     0.000
  8900.00    -0.010
  8910.00     0.035
  8920.00     0.080
  8930.00     0.055
  8940.00     0.055
  8950.00     0.000
  8960.00     0.075
  8970.00     0.015
  8980.00     0.045
  8990.00     0.000
  9000.00     0.000
  9010.00     0.085
  9020.00     0.065
  9030.00     0.050
  9040.00     0.020
  9050.00     0.005
  9060.00     0.020
  9070.00     0.050
  9080.00    -0.040
  9090.00     0.030
  9100.00    -0.015
  9110.00     0.025
  9120.00    -0.015
  9130.00     0.000
  9140.00     0.050
  9150.00     0.060
  9160.00     0.040
  9170.00     0.050
  9180.00     0.025
  9190.00     0.035
  9200.00     0.030
  9210.00     0.045
  9220.00     0.010
  9230.00     0.030
  9240.00    -0.025
  9250.00     0.020
  9260.00     0.060
  9270.00     0.045
  9280.00     0.015
  9290.00     0.025
  9300.00     0.010
  9310.00     0.005
  9320.00     0.070
  9330.00     0.070
  9340.00     0.015
  9350.00     0.060
  9360.00    -0.030
  9370.00     0.040
  9380.00     0.025
  9390.00     0.025
  9400.00     0.065
  9410.00    -0.010
  9420.00    -0.030
  9430.00     0.035
  9440.00     0.045
  9450.00     0.030
  9460.00     0.035
  9470.00     0.020
  9480.00     0.025
  9490.00    -0.015
  9500.00    -0.015
  9510.00     0.015
  9520.00    -0.015
  9530.00     0.005
  9540.00     0.045
  9550.00     0.050
  9560.00    -0.010
  9570.00     0.055
  9580.00     0.085
  9590.00     0.070
  9600.00    -0.015
  9610.00     0.035
  9620.00     0.075
  9630.00     0.010
  9640.00     0.030
  9650.00     0.020
  9660.00     0.015
  9670.00     0.020
  9680.00     0.015
  9690.00     0.000
  9700.00     0.040
  9710.00     0.055
  9720.00    -0.015
  9730.00     0.025
  9740.00    -0.015
  9750.00     0.000
  9760.00     0.040
  9770.00     0.025
  9780.00     0.020
  9790.00    -0.010
  9800.00     0.035
  9810.00     0.020
  9820.00     0.040
  9830.00     0.070
  9840.00     0.035
  9850.00    -0.020
  9860.00     0.000
  9870.00     0.070
  9880.00     0.025
  9890.00     0.010
  9900.00     0.050
  9910.00     0.035
  9920.00     0.030
  9930.00     0.005
  9940.00     0.000
  9950.00     0.010
  9960.00     0.050
  9970.00     0.010
  9980.00    -0.075
  9990.00     0.030
 10000.00     0.065
 10010.00     0.040
 10020.00    -0.005
 10030.00     0.010
 10040.00    -0.040
 10050.00     0.005
 10060.00    -0.010
 10070.00    -0.005
 10080.00     0.000
 10090.00     0.010
 10100.00    -0.005
 10110.00    -0.005
 10120.00     0.005
 10130.00     0.040
 10140.00     0.080
 10150.00     0.040
 10160.00    -0.005
 10170.00    -0.060
 10180.00     0.090
 10190.00     0.020
 10200.00     0.030
 10210.00     0.015
 10220.00     0.030
 10230.00     0.040
 10240.00     0.040
 10250.00     0.075
 10260.00     0.050
 10270.00     0.075
 10280.00     0.045
 10290.00     0.060
 10300.00     0.025
 10310.00     0.055
 10320.00    -0.040
 10330.00     0.030
 10340.00     0.020
 10350.00    -0.020
 10360.00     0.030
 10370.00    -0.040
 10380.00     0.015
 10390.00     0.035
 10400.00     0.065
 10410.00     0.020
 10420.00     0.020
 10430.00     0.005
 10440.00     0.040
 10450.00     0.060
 10460.00     0.025
 10470.00    -0.020
 10480.00    -0.045
 10490.00     0.010
 10500.00    -0.050
 10510.00    -0.010
 10520.00     0.020
 10530.00     0.070
 10540.00     0.000
 10550.00     0.030
 10560.00     0.000
 10570.00     0.010
 10580.00     0.040
 10590.00     0.045
 10600.00     0.025
 10610.00     0.010
 10620.00     0.055
 10630.00     0.060
 10640.00     0.015
 10650.00     0.080
 10660.00     0.030
 10670.00     0.000
 10680.00    -0.010
 10690.00     0.025
 10700.00    -0.095
 10710.00     0.010
 10720.00     0.005
 10730.00    -0.030
 10740.00     0.025
 10750.00     0.030
 10760.00     0.000
 10770.00     0.030
 10780.00     0.030
 10790.00    -0.010
 10800.00     0.025
 10810.00     0.005
 10820.00     0.065
 10830.00     0.005
 10840.00     0.020
 10850.00    -0.055
 10860.00    -0.030
 10870.00     0.090
 10880.00     0.025
 10890.00     0.005
 10900.00    -0.060
 10910.00    -0.030
 10920.00     0.020
 10930.00     0.005
 10940.00     0.090
 10950.00    -0.020
 10960.00     0.025
 10970.00     0.010
 10980.00    -0.010
 10990.00     0.015
 11000.00     0.045
 11010.00    -0.010
 11020.00    -0.025
 11030.00     0.015
 11040.00    -0.030
 11050.00     0.035
 11060.00     0.035
 11070.00    -0.010
 11080.00    -0.020
 11090.00     0.035
 11100.00    -0.005
 11110.00    -0.005
 11120.00    -0.005
 11130.00     0.010
 11140.00     0.065
 11150.00     0.095
 11160.00    -0.040
 11170.00    -0.020
 11180.00    -0.025
 11190.00     0.020
 11200.00    -0.020
 11210.00     0.035
 11220.00    -0.065
 11230.00    -0.065
 11240.00    -0.005
 11250.00     0.000
 11260.00     0.100
 11270.00     0.060
 11280.00     0.050
 11290.00     0.010
 11300.00    -0.005
 11310.00    -0.010
 11320.00     0.090
 11330.00     0.015
 11340.00     0.005
 11350.00    -0.025
 11360.00    -0.020
 11370.00    -0.045
 11380.00     0.000
 11390.00    -0.035
 11400.00    -0.045
 11410.00     0.035
 11420.00     0.035
 11430.00     0.045
 11440.00     0.050
 11450.00     0.050
 11460.00     0.095
 11470.00     0.005
 11480.00     0.085
 11490.00     0.105
 11500.00     0.095
 11510.00     0.060
 11520.00     0.030
 11530.00     0.045
 11540.00     0.060
 11550.00     0.015
 11560.00    -0.050
 11570.00    -0.125
 11580.00    -0.140
 11590.00    -0.100
 11600.00    -0.085
 11610.00    -0.075
 11620.00    -0.025
 11630.00    -0.005
 11640.00    -0.030
 11650.00     0.020
 11660.00     0.015
 11670.00    -0.010
 11680.00     0.015
 11690.00     0.010
 11700.00     0.010
 11710.00     0.010
 11720.00    -0.035
 11730.00     0.035
 11740.00    -0.015
 11750.00     0.030
 11760.00     0.085
 11770.00     0.025
 11780.00     0.065
 11790.00     0.065
 11800.00     0.010
 11810.00     0.060
 11820.00     0.065
 11830.00     0.090
 11840.00     0.020
 11850.00     0.005
 11860.00     0.030
 11870.00    -0.070
 11880.00    -0.155
 11890.00    -0.275
 11900.00    -0.170
 11910.00     0.015
 11920.00     0.035
 11930.00    -0.050
 11940.00     0.065
 11950.00     0.100
 11960.00     0.115
 11970.00     0.065
 11980.00     0.065
 11990.00    -0.025
 12000.00     0.030
