#== Filter Data - Lambda 9 Spectrophotometer ==
#  Kitt Peak National Observatory - NOAO
#-----------------------------------------------
#Filter: 
#Date: 02/17/04   Time: 15:53:36  Operator: HS
#cwl=  3641.93A  fwhm= 557.07A  Tmax= 59.37% at  3690.00A
#Tcutoff=  2.00 %  Slitsize = 10 A
#fwhm spans 3363.39A to 3920.46A
#90%  spans 3562.29A to 3806.96A
#bw90 is  0.439; Tmin90/Tmax is  0.900
#No data smoothing
#
#Npts=  901     Disp= 10.00A/Interval
#*****
  3000.00     0.000
  3010.00     0.000
  3020.00     0.000
  3030.00     0.000
  3040.00     0.005
  3050.00     0.005
  3060.00     0.010
  3070.00     0.020
  3080.00     0.045
  3090.00     0.080
  3100.00     0.145
  3110.00     0.245
  3120.00     0.395
  3130.00     0.600
  3140.00     0.885
  3150.00     1.255
  3160.00     1.735
  3170.00     2.320
  3180.00     3.010
  3190.00     3.815
  3200.00     4.750
  3210.00     5.830
  3220.00     6.965
  3230.00     8.250
  3240.00     9.575
  3250.00    11.035
  3260.00    12.585
  3270.00    14.230
  3280.00    15.880
  3290.00    17.535
  3300.00    19.205
  3310.00    20.930
  3320.00    22.595
  3330.00    24.275
  3340.00    25.920
  3350.00    27.550
  3360.00    29.150
  3370.00    30.720
  3380.00    32.245
  3390.00    33.690
  3400.00    35.210
  3410.00    36.560
  3420.00    37.975
  3430.00    39.310
  3440.00    40.590
  3450.00    41.810
  3460.00    43.010
  3470.00    44.250
  3480.00    45.385
  3490.00    46.435
  3500.00    47.605
  3510.00    48.590
  3520.00    49.625
  3530.00    50.520
  3540.00    51.460
  3550.00    52.320
  3560.00    53.260
  3570.00    53.995
  3580.00    54.850
  3590.00    55.470
  3600.00    56.115
  3610.00    56.730
  3620.00    57.270
  3630.00    57.710
  3640.00    58.120
  3650.00    58.480
  3660.00    58.855
  3670.00    59.080
  3680.00    59.325
  3690.00    59.365
  3700.00    59.330
  3710.00    59.255
  3720.00    59.095
  3730.00    58.890
  3740.00    58.580
  3750.00    58.120
  3760.00    57.590
  3770.00    56.855
  3780.00    56.170
  3790.00    55.320
  3800.00    54.260
  3810.00    53.065
  3820.00    51.625
  3830.00    50.100
  3840.00    48.365
  3850.00    46.485
  3860.00    44.480
  3870.00    42.310
  3880.00    39.980
  3890.00    37.535
  3900.00    35.000
  3910.00    32.415
  3920.00    29.805
  3930.00    27.140
  3940.00    24.585
  3950.00    22.015
  3960.00    19.540
  3970.00    17.185
  3980.00    14.925
  3990.00    12.870
  4000.00    10.985
  4010.00     9.285
  4020.00     7.760
  4030.00     6.425
  4040.00     5.245
  4050.00     4.275
  4060.00     3.410
  4070.00     2.690
  4080.00     2.115
  4090.00     1.640
  4100.00     1.260
  4110.00     0.965
  4120.00     0.730
  4130.00     0.550
  4140.00     0.410
  4150.00     0.305
  4160.00     0.225
  4170.00     0.160
  4180.00     0.120
  4190.00     0.085
  4200.00     0.060
  4210.00     0.045
  4220.00     0.030
  4230.00     0.020
  4240.00     0.015
  4250.00     0.010
  4260.00     0.005
  4270.00     0.005
  4280.00     0.005
  4290.00     0.000
  4300.00     0.000
  4310.00     0.000
  4320.00     0.000
  4330.00     0.000
  4340.00     0.000
  4350.00     0.000
  4360.00     0.000
  4370.00    -0.005
  4380.00     0.000
  4390.00     0.000
  4400.00     0.000
  4410.00     0.000
  4420.00    -0.005
  4430.00     0.000
  4440.00    -0.005
  4450.00    -0.005
  4460.00    -0.005
  4470.00    -0.005
  4480.00    -0.005
  4490.00    -0.005
  4500.00    -0.005
  4510.00    -0.005
  4520.00    -0.005
  4530.00    -0.005
  4540.00    -0.005
  4550.00    -0.005
  4560.00     0.000
  4570.00     0.000
  4580.00    -0.005
  4590.00    -0.005
  4600.00    -0.005
  4610.00     0.000
  4620.00    -0.005
  4630.00     0.000
  4640.00     0.000
  4650.00     0.000
  4660.00     0.000
  4670.00    -0.005
  4680.00     0.000
  4690.00     0.000
  4700.00     0.000
  4710.00     0.000
  4720.00     0.000
  4730.00    -0.005
  4740.00    -0.005
  4750.00     0.000
  4760.00     0.000
  4770.00     0.000
  4780.00     0.000
  4790.00     0.000
  4800.00     0.000
  4810.00    -0.005
  4820.00    -0.005
  4830.00     0.000
  4840.00     0.000
  4850.00    -0.005
  4860.00    -0.005
  4870.00    -0.005
  4880.00     0.000
  4890.00    -0.005
  4900.00     0.000
  4910.00    -0.005
  4920.00    -0.005
  4930.00    -0.005
  4940.00     0.000
  4950.00     0.000
  4960.00     0.000
  4970.00     0.000
  4980.00    -0.005
  4990.00    -0.005
  5000.00    -0.005
  5010.00     0.000
  5020.00    -0.005
  5030.00     0.000
  5040.00     0.000
  5050.00     0.000
  5060.00     0.000
  5070.00     0.000
  5080.00     0.000
  5090.00    -0.005
  5100.00     0.000
  5110.00     0.000
  5120.00    -0.005
  5130.00     0.000
  5140.00     0.000
  5150.00     0.000
  5160.00     0.000
  5170.00     0.000
  5180.00     0.000
  5190.00     0.000
  5200.00     0.000
  5210.00    -0.005
  5220.00    -0.005
  5230.00     0.000
  5240.00     0.000
  5250.00     0.000
  5260.00    -0.005
  5270.00     0.000
  5280.00     0.000
  5290.00    -0.005
  5300.00     0.000
  5310.00    -0.005
  5320.00     0.000
  5330.00    -0.005
  5340.00    -0.005
  5350.00    -0.005
  5360.00    -0.005
  5370.00    -0.005
  5380.00    -0.005
  5390.00     0.000
  5400.00     0.000
  5410.00    -0.005
  5420.00    -0.005
  5430.00     0.000
  5440.00     0.000
  5450.00     0.000
  5460.00    -0.005
  5470.00    -0.005
  5480.00    -0.005
  5490.00     0.000
  5500.00    -0.005
  5510.00     0.000
  5520.00     0.000
  5530.00     0.000
  5540.00    -0.005
  5550.00     0.000
  5560.00     0.000
  5570.00     0.000
  5580.00     0.000
  5590.00     0.000
  5600.00     0.000
  5610.00    -0.010
  5620.00    -0.040
  5630.00     0.000
  5640.00     0.000
  5650.00     0.000
  5660.00     0.000
  5670.00    -0.005
  5680.00     0.000
  5690.00     0.000
  5700.00     0.000
  5710.00     0.000
  5720.00     0.000
  5730.00     0.000
  5740.00     0.000
  5750.00    -0.005
  5760.00     0.000
  5770.00    -0.005
  5780.00     0.000
  5790.00     0.000
  5800.00     0.000
  5810.00     0.000
  5820.00     0.000
  5830.00     0.000
  5840.00     0.000
  5850.00     0.000
  5860.00     0.000
  5870.00     0.000
  5880.00     0.000
  5890.00     0.000
  5900.00     0.000
  5910.00     0.000
  5920.00     0.000
  5930.00     0.000
  5940.00     0.000
  5950.00    -0.005
  5960.00     0.000
  5970.00    -0.005
  5980.00     0.000
  5990.00     0.000
  6000.00    -0.005
  6010.00     0.000
  6020.00    -0.005
  6030.00     0.000
  6040.00    -0.005
  6050.00     0.000
  6060.00     0.000
  6070.00     0.000
  6080.00     0.000
  6090.00     0.000
  6100.00    -0.005
  6110.00     0.000
  6120.00    -0.005
  6130.00     0.000
  6140.00     0.000
  6150.00     0.000
  6160.00     0.000
  6170.00     0.000
  6180.00     0.000
  6190.00     0.000
  6200.00     0.000
  6210.00     0.000
  6220.00     0.000
  6230.00     0.000
  6240.00     0.000
  6250.00     0.000
  6260.00     0.000
  6270.00     0.000
  6280.00     0.000
  6290.00     0.000
  6300.00     0.000
  6310.00    -0.005
  6320.00     0.000
  6330.00     0.000
  6340.00     0.000
  6350.00     0.000
  6360.00     0.000
  6370.00     0.000
  6380.00     0.000
  6390.00     0.000
  6400.00    -0.005
  6410.00     0.000
  6420.00    -0.005
  6430.00     0.000
  6440.00     0.000
  6450.00     0.000
  6460.00     0.000
  6470.00     0.000
  6480.00     0.000
  6490.00     0.000
  6500.00     0.000
  6510.00     0.000
  6520.00     0.000
  6530.00     0.000
  6540.00     0.000
  6550.00     0.000
  6560.00     0.000
  6570.00     0.000
  6580.00     0.000
  6590.00     0.000
  6600.00     0.000
  6610.00     0.000
  6620.00    -0.005
  6630.00     0.000
  6640.00    -0.005
  6650.00     0.000
  6660.00     0.000
  6670.00     0.000
  6680.00    -0.005
  6690.00    -0.005
  6700.00     0.000
  6710.00     0.000
  6720.00     0.000
  6730.00     0.000
  6740.00     0.000
  6750.00     0.000
  6760.00     0.000
  6770.00     0.000
  6780.00     0.000
  6790.00    -0.005
  6800.00    -0.005
  6810.00     0.000
  6820.00     0.000
  6830.00     0.000
  6840.00     0.000
  6850.00     0.000
  6860.00     0.000
  6870.00     0.000
  6880.00     0.000
  6890.00    -0.005
  6900.00    -0.035
  6910.00     0.000
  6920.00     0.000
  6930.00     0.000
  6940.00     0.000
  6950.00     0.000
  6960.00     0.000
  6970.00     0.000
  6980.00     0.000
  6990.00     0.000
  7000.00     0.000
  7010.00     0.000
  7020.00     0.000
  7030.00     0.000
  7040.00     0.000
  7050.00     0.000
  7060.00     0.000
  7070.00     0.000
  7080.00     0.000
  7090.00     0.000
  7100.00     0.005
  7110.00     0.000
  7120.00     0.000
  7130.00     0.000
  7140.00     0.000
  7150.00     0.000
  7160.00     0.000
  7170.00     0.000
  7180.00     0.000
  7190.00     0.000
  7200.00     0.000
  7210.00     0.000
  7220.00     0.000
  7230.00     0.000
  7240.00     0.000
  7250.00     0.000
  7260.00     0.000
  7270.00     0.000
  7280.00     0.000
  7290.00     0.000
  7300.00     0.000
  7310.00     0.000
  7320.00     0.000
  7330.00     0.000
  7340.00     0.000
  7350.00     0.000
  7360.00     0.000
  7370.00     0.000
  7380.00     0.000
  7390.00     0.000
  7400.00     0.000
  7410.00     0.000
  7420.00     0.000
  7430.00     0.000
  7440.00     0.000
  7450.00     0.000
  7460.00     0.000
  7470.00     0.000
  7480.00     0.000
  7490.00     0.000
  7500.00     0.000
  7510.00     0.000
  7520.00     0.000
  7530.00     0.000
  7540.00     0.000
  7550.00     0.000
  7560.00     0.000
  7570.00     0.000
  7580.00     0.000
  7590.00     0.000
  7600.00     0.000
  7610.00     0.000
  7620.00     0.000
  7630.00     0.000
  7640.00     0.000
  7650.00     0.000
  7660.00     0.000
  7670.00    -0.005
  7680.00     0.000
  7690.00     0.000
  7700.00     0.000
  7710.00     0.000
  7720.00     0.000
  7730.00     0.000
  7740.00     0.000
  7750.00     0.000
  7760.00     0.000
  7770.00     0.000
  7780.00     0.000
  7790.00     0.000
  7800.00     0.000
  7810.00     0.000
  7820.00     0.000
  7830.00     0.000
  7840.00     0.000
  7850.00     0.000
  7860.00     0.000
  7870.00     0.000
  7880.00     0.000
  7890.00     0.000
  7900.00     0.000
  7910.00     0.000
  7920.00     0.000
  7930.00     0.000
  7940.00     0.000
  7950.00     0.000
  7960.00     0.000
  7970.00     0.000
  7980.00     0.000
  7990.00     0.000
  8000.00     0.000
  8010.00     0.000
  8020.00     0.000
  8030.00     0.000
  8040.00     0.000
  8050.00     0.000
  8060.00     0.000
  8070.00     0.000
  8080.00     0.000
  8090.00     0.000
  8100.00     0.000
  8110.00     0.000
  8120.00     0.000
  8130.00     0.000
  8140.00     0.000
  8150.00     0.000
  8160.00     0.005
  8170.00     0.000
  8180.00     0.000
  8190.00     0.000
  8200.00     0.000
  8210.00     0.000
  8220.00     0.000
  8230.00     0.000
  8240.00     0.000
  8250.00     0.000
  8260.00     0.005
  8270.00     0.000
  8280.00     0.000
  8290.00     0.005
  8300.00     0.000
  8310.00     0.000
  8320.00     0.000
  8330.00     0.000
  8340.00     0.000
  8350.00     0.000
  8360.00     0.000
  8370.00     0.000
  8380.00     0.000
  8390.00     0.000
  8400.00     0.000
  8410.00     0.000
  8420.00     0.005
  8430.00     0.000
  8440.00     0.000
  8450.00     0.000
  8460.00     0.005
  8470.00     0.005
  8480.00     0.005
  8490.00     0.005
  8500.00     0.000
  8510.00     0.005
  8520.00     0.005
  8530.00     0.005
  8540.00     0.005
  8550.00     0.000
  8560.00     0.000
  8570.00     0.005
  8580.00     0.000
  8590.00     0.000
  8600.00     0.000
  8610.00     0.025
  8620.00     0.085
  8630.00     0.075
  8640.00     0.090
  8650.00     0.050
  8660.00     0.075
  8670.00     0.055
  8680.00     0.080
  8690.00     0.040
  8700.00     0.050
  8710.00     0.045
  8720.00     0.025
  8730.00     0.055
  8740.00     0.075
  8750.00     0.040
  8760.00     0.055
  8770.00     0.070
  8780.00     0.065
  8790.00     0.055
  8800.00     0.050
  8810.00     0.020
  8820.00     0.085
  8830.00     0.025
  8840.00     0.050
  8850.00     0.060
  8860.00     0.065
  8870.00     0.040
  8880.00     0.050
  8890.00     0.065
  8900.00     0.075
  8910.00     0.065
  8920.00     0.060
  8930.00     0.035
  8940.00     0.075
  8950.00     0.030
  8960.00     0.045
  8970.00     0.055
  8980.00     0.060
  8990.00     0.075
  9000.00     0.075
  9010.00     0.075
  9020.00     0.060
  9030.00     0.060
  9040.00     0.070
  9050.00     0.105
  9060.00     0.010
  9070.00     0.080
  9080.00     0.015
  9090.00     0.065
  9100.00     0.025
  9110.00     0.045
  9120.00     0.020
  9130.00     0.070
  9140.00     0.030
  9150.00     0.060
  9160.00     0.035
  9170.00     0.030
  9180.00     0.060
  9190.00     0.080
  9200.00     0.050
  9210.00     0.025
  9220.00     0.010
  9230.00     0.030
  9240.00     0.060
  9250.00     0.055
  9260.00     0.035
  9270.00     0.055
  9280.00     0.035
  9290.00     0.060
  9300.00     0.030
  9310.00     0.055
  9320.00     0.055
  9330.00     0.035
  9340.00     0.030
  9350.00     0.040
  9360.00     0.050
  9370.00     0.040
  9380.00     0.055
  9390.00     0.065
  9400.00     0.090
  9410.00     0.030
  9420.00     0.065
  9430.00     0.090
  9440.00     0.080
  9450.00     0.065
  9460.00     0.040
  9470.00     0.095
  9480.00     0.060
  9490.00     0.040
  9500.00     0.075
  9510.00     0.050
  9520.00     0.070
  9530.00     0.050
  9540.00     0.080
  9550.00     0.065
  9560.00     0.065
  9570.00     0.080
  9580.00     0.085
  9590.00     0.020
  9600.00     0.060
  9610.00     0.050
  9620.00     0.045
  9630.00     0.070
  9640.00     0.060
  9650.00     0.075
  9660.00     0.050
  9670.00     0.050
  9680.00     0.070
  9690.00     0.025
  9700.00     0.070
  9710.00     0.070
  9720.00     0.045
  9730.00     0.085
  9740.00     0.055
  9750.00     0.030
  9760.00     0.045
  9770.00     0.070
  9780.00     0.045
  9790.00     0.070
  9800.00     0.025
  9810.00     0.060
  9820.00     0.010
  9830.00     0.070
  9840.00     0.055
  9850.00     0.075
  9860.00     0.060
  9870.00     0.065
  9880.00    -0.005
  9890.00     0.085
  9900.00     0.075
  9910.00     0.050
  9920.00     0.015
  9930.00     0.070
  9940.00     0.040
  9950.00     0.085
  9960.00     0.040
  9970.00     0.040
  9980.00     0.065
  9990.00     0.085
 10000.00     0.060
 10010.00     0.050
 10020.00     0.015
 10030.00     0.030
 10040.00     0.065
 10050.00     0.030
 10060.00     0.050
 10070.00     0.035
 10080.00     0.095
 10090.00     0.055
 10100.00     0.075
 10110.00     0.050
 10120.00     0.070
 10130.00     0.055
 10140.00     0.050
 10150.00     0.100
 10160.00     0.025
 10170.00     0.060
 10180.00     0.075
 10190.00     0.040
 10200.00     0.025
 10210.00     0.050
 10220.00     0.080
 10230.00     0.015
 10240.00     0.030
 10250.00     0.050
 10260.00     0.050
 10270.00     0.065
 10280.00     0.080
 10290.00     0.015
 10300.00     0.085
 10310.00     0.040
 10320.00     0.060
 10330.00     0.005
 10340.00     0.070
 10350.00     0.065
 10360.00     0.010
 10370.00     0.035
 10380.00     0.045
 10390.00     0.090
 10400.00     0.070
 10410.00     0.040
 10420.00     0.110
 10430.00     0.065
 10440.00     0.035
 10450.00     0.060
 10460.00     0.040
 10470.00     0.075
 10480.00     0.035
 10490.00     0.080
 10500.00     0.055
 10510.00     0.090
 10520.00     0.040
 10530.00     0.045
 10540.00     0.050
 10550.00     0.030
 10560.00     0.035
 10570.00     0.030
 10580.00     0.070
 10590.00     0.065
 10600.00     0.040
 10610.00     0.040
 10620.00     0.090
 10630.00     0.055
 10640.00     0.070
 10650.00     0.075
 10660.00     0.005
 10670.00     0.085
 10680.00     0.030
 10690.00     0.080
 10700.00     0.040
 10710.00     0.030
 10720.00     0.115
 10730.00     0.080
 10740.00     0.040
 10750.00     0.075
 10760.00     0.045
 10770.00     0.060
 10780.00     0.065
 10790.00     0.060
 10800.00     0.040
 10810.00     0.050
 10820.00     0.015
 10830.00     0.045
 10840.00     0.090
 10850.00     0.065
 10860.00     0.040
 10870.00     0.010
 10880.00     0.050
 10890.00     0.105
 10900.00     0.060
 10910.00     0.075
 10920.00     0.045
 10930.00     0.000
 10940.00     0.065
 10950.00     0.045
 10960.00     0.065
 10970.00     0.055
 10980.00     0.045
 10990.00     0.025
 11000.00     0.065
 11010.00     0.075
 11020.00     0.045
 11030.00     0.015
 11040.00     0.080
 11050.00     0.040
 11060.00     0.030
 11070.00     0.030
 11080.00     0.030
 11090.00     0.020
 11100.00     0.080
 11110.00     0.050
 11120.00     0.055
 11130.00     0.070
 11140.00     0.055
 11150.00     0.035
 11160.00     0.065
 11170.00     0.055
 11180.00     0.055
 11190.00     0.030
 11200.00     0.070
 11210.00     0.035
 11220.00     0.120
 11230.00     0.030
 11240.00     0.035
 11250.00     0.085
 11260.00     0.045
 11270.00     0.035
 11280.00     0.025
 11290.00     0.120
 11300.00     0.045
 11310.00     0.060
 11320.00     0.055
 11330.00     0.125
 11340.00     0.045
 11350.00     0.020
 11360.00     0.040
 11370.00     0.080
 11380.00     0.090
 11390.00     0.095
 11400.00     0.080
 11410.00     0.060
 11420.00     0.080
 11430.00     0.100
 11440.00     0.085
 11450.00     0.050
 11460.00     0.080
 11470.00     0.115
 11480.00     0.105
 11490.00     0.115
 11500.00     0.095
 11510.00     0.080
 11520.00     0.105
 11530.00     0.080
 11540.00     0.075
 11550.00     0.090
 11560.00     0.090
 11570.00     0.040
 11580.00     0.030
 11590.00     0.020
 11600.00    -0.025
 11610.00    -0.010
 11620.00     0.030
 11630.00    -0.010
 11640.00     0.005
 11650.00     0.065
 11660.00     0.035
 11670.00     0.045
 11680.00     0.055
 11690.00     0.030
 11700.00     0.025
 11710.00     0.045
 11720.00     0.050
 11730.00     0.075
 11740.00     0.050
 11750.00     0.055
 11760.00     0.090
 11770.00     0.035
 11780.00     0.040
 11790.00     0.120
 11800.00     0.120
 11810.00     0.085
 11820.00     0.085
 11830.00     0.070
 11840.00     0.085
 11850.00     0.040
 11860.00     0.035
 11870.00     0.005
 11880.00    -0.070
 11890.00    -0.160
 11900.00    -0.140
 11910.00     0.055
 11920.00     0.110
 11930.00     0.100
 11940.00     0.040
 11950.00     0.040
 11960.00     0.060
 11970.00     0.075
 11980.00     0.065
 11990.00     0.045
 12000.00     0.055
